# E (eV)  dos(E)    pdos(E)
   0.000  0.961E+02  0.959E+02
   0.010  0.595E+02  0.595E+02
   0.020  0.264E+02  0.264E+02
   0.030  0.180E+02  0.180E+02
   0.040  0.327E+02  0.327E+02
   0.050  0.719E+01  0.719E+01
   0.060  0.172E+01  0.172E+01
   0.070  0.586E+00  0.585E+00
   0.080  0.804E+00  0.802E+00
   0.090  0.117E+01  0.116E+01
   0.100  0.199E+01  0.198E+01
   0.110  0.295E+01  0.293E+01
   0.120  0.382E+01  0.380E+01
   0.130  0.460E+01  0.458E+01
   0.140  0.531E+01  0.528E+01
   0.150  0.594E+01  0.591E+01
   0.160  0.650E+01  0.646E+01
   0.170  0.698E+01  0.694E+01
   0.180  0.739E+01  0.735E+01
   0.190  0.772E+01  0.768E+01
   0.200  0.798E+01  0.794E+01
   0.210  0.816E+01  0.812E+01
   0.220  0.825E+01  0.821E+01
   0.230  0.823E+01  0.818E+01
   0.240  0.832E+01  0.827E+01
   0.250  0.872E+01  0.867E+01
   0.260  0.921E+01  0.916E+01
   0.270  0.969E+01  0.964E+01
   0.280  0.102E+02  0.101E+02
   0.290  0.106E+02  0.106E+02
   0.300  0.111E+02  0.111E+02
   0.310  0.116E+02  0.115E+02
   0.320  0.120E+02  0.120E+02
   0.330  0.124E+02  0.124E+02
   0.340  0.156E+02  0.155E+02
   0.350  0.208E+02  0.207E+02
   0.360  0.217E+02  0.215E+02
   0.370  0.222E+02  0.221E+02
   0.380  0.225E+02  0.224E+02
   0.390  0.226E+02  0.225E+02
   0.400  0.226E+02  0.225E+02
   0.410  0.233E+02  0.232E+02
   0.420  0.244E+02  0.243E+02
   0.430  0.236E+02  0.234E+02
   0.440  0.233E+02  0.232E+02
   0.450  0.239E+02  0.238E+02
   0.460  0.245E+02  0.244E+02
   0.470  0.252E+02  0.250E+02
   0.480  0.258E+02  0.256E+02
   0.490  0.264E+02  0.263E+02
   0.500  0.270E+02  0.268E+02
   0.510  0.276E+02  0.274E+02
   0.520  0.281E+02  0.280E+02
   0.530  0.301E+02  0.300E+02
   0.540  0.337E+02  0.335E+02
   0.550  0.367E+02  0.365E+02
   0.560  0.422E+02  0.420E+02
   0.570  0.471E+02  0.469E+02
   0.580  0.478E+02  0.476E+02
   0.590  0.449E+02  0.447E+02
   0.600  0.401E+02  0.399E+02
   0.610  0.381E+02  0.380E+02
   0.620  0.404E+02  0.402E+02
   0.630  0.450E+02  0.448E+02
   0.640  0.523E+02  0.521E+02
   0.650  0.677E+02  0.674E+02
   0.660  0.165E+03  0.164E+03
   0.670  0.115E+03  0.114E+03
   0.680  0.135E+03  0.135E+03
   0.690  0.147E+03  0.147E+03
   0.700  0.154E+03  0.154E+03
   0.710  0.110E+03  0.110E+03
   0.720  0.726E+02  0.723E+02
   0.730  0.620E+02  0.618E+02
   0.740  0.605E+02  0.603E+02
   0.750  0.593E+02  0.591E+02
   0.760  0.493E+02  0.491E+02
   0.770  0.368E+02  0.366E+02
   0.780  0.244E+02  0.243E+02
   0.790  0.163E+02  0.162E+02
   0.800  0.137E+02  0.137E+02
   0.810  0.267E+02  0.266E+02
   0.820  0.418E+02  0.417E+02
   0.830  0.499E+02  0.497E+02
   0.840  0.496E+02  0.495E+02
   0.850  0.490E+02  0.488E+02
   0.860  0.500E+02  0.499E+02
   0.870  0.498E+02  0.496E+02
   0.880  0.496E+02  0.494E+02
   0.890  0.495E+02  0.493E+02
   0.900  0.498E+02  0.496E+02
   0.910  0.503E+02  0.501E+02
   0.920  0.508E+02  0.506E+02
   0.930  0.521E+02  0.519E+02
   0.940  0.532E+02  0.531E+02
   0.950  0.535E+02  0.533E+02
   0.960  0.527E+02  0.526E+02
   0.970  0.513E+02  0.511E+02
   0.980  0.491E+02  0.489E+02
   0.990  0.461E+02  0.460E+02
   1.000  0.424E+02  0.422E+02
   1.010  0.387E+02  0.385E+02
   1.020  0.359E+02  0.358E+02
   1.030  0.337E+02  0.336E+02
   1.040  0.323E+02  0.322E+02
   1.050  0.309E+02  0.308E+02
   1.060  0.297E+02  0.296E+02
   1.070  0.285E+02  0.284E+02
   1.080  0.274E+02  0.273E+02
   1.090  0.264E+02  0.263E+02
   1.100  0.259E+02  0.258E+02
   1.110  0.264E+02  0.263E+02
   1.120  0.273E+02  0.272E+02
   1.130  0.280E+02  0.279E+02
   1.140  0.285E+02  0.284E+02
   1.150  0.288E+02  0.288E+02
   1.160  0.290E+02  0.289E+02
   1.170  0.290E+02  0.289E+02
   1.180  0.287E+02  0.287E+02
   1.190  0.283E+02  0.283E+02
   1.200  0.278E+02  0.277E+02
   1.210  0.270E+02  0.269E+02
   1.220  0.261E+02  0.260E+02
   1.230  0.249E+02  0.249E+02
   1.240  0.237E+02  0.237E+02
   1.250  0.225E+02  0.225E+02
   1.260  0.213E+02  0.212E+02
   1.270  0.200E+02  0.200E+02
   1.280  0.188E+02  0.187E+02
   1.290  0.177E+02  0.177E+02
   1.300  0.171E+02  0.171E+02
   1.310  0.167E+02  0.167E+02
   1.320  0.166E+02  0.165E+02
   1.330  0.168E+02  0.168E+02
   1.340  0.172E+02  0.172E+02
   1.350  0.180E+02  0.179E+02
   1.360  0.187E+02  0.187E+02
   1.370  0.195E+02  0.194E+02
   1.380  0.222E+02  0.221E+02
   1.390  0.248E+02  0.248E+02
   1.400  0.252E+02  0.251E+02
   1.410  0.232E+02  0.231E+02
   1.420  0.200E+02  0.199E+02
   1.430  0.165E+02  0.164E+02
   1.440  0.135E+02  0.134E+02
   1.450  0.118E+02  0.117E+02
   1.460  0.116E+02  0.116E+02
   1.470  0.123E+02  0.122E+02
   1.480  0.132E+02  0.132E+02
   1.490  0.144E+02  0.144E+02
   1.500  0.155E+02  0.155E+02
   1.510  0.165E+02  0.165E+02
   1.520  0.173E+02  0.173E+02
   1.530  0.180E+02  0.180E+02
   1.540  0.185E+02  0.185E+02
   1.550  0.189E+02  0.189E+02
   1.560  0.192E+02  0.192E+02
   1.570  0.193E+02  0.193E+02
   1.580  0.193E+02  0.192E+02
   1.590  0.191E+02  0.191E+02
   1.600  0.188E+02  0.188E+02
   1.610  0.183E+02  0.183E+02
   1.620  0.178E+02  0.177E+02
   1.630  0.171E+02  0.170E+02
   1.640  0.164E+02  0.164E+02
   1.650  0.160E+02  0.159E+02
   1.660  0.155E+02  0.155E+02
   1.670  0.151E+02  0.150E+02
   1.680  0.147E+02  0.146E+02
   1.690  0.143E+02  0.143E+02
   1.700  0.140E+02  0.140E+02
   1.710  0.137E+02  0.137E+02
   1.720  0.134E+02  0.134E+02
   1.730  0.132E+02  0.132E+02
   1.740  0.130E+02  0.130E+02
   1.750  0.129E+02  0.129E+02
   1.760  0.129E+02  0.129E+02
   1.770  0.129E+02  0.129E+02
   1.780  0.129E+02  0.129E+02
   1.790  0.130E+02  0.130E+02
   1.800  0.131E+02  0.131E+02
   1.810  0.132E+02  0.132E+02
   1.820  0.133E+02  0.132E+02
   1.830  0.134E+02  0.133E+02
   1.840  0.134E+02  0.134E+02
   1.850  0.135E+02  0.134E+02
   1.860  0.136E+02  0.135E+02
   1.870  0.136E+02  0.136E+02
   1.880  0.137E+02  0.137E+02
   1.890  0.137E+02  0.137E+02
   1.900  0.138E+02  0.138E+02
   1.910  0.152E+02  0.152E+02
   1.920  0.171E+02  0.170E+02
   1.930  0.171E+02  0.170E+02
   1.940  0.160E+02  0.160E+02
   1.950  0.156E+02  0.155E+02
   1.960  0.153E+02  0.153E+02
   1.970  0.149E+02  0.149E+02
   1.980  0.144E+02  0.144E+02
   1.990  0.137E+02  0.137E+02
   2.000  0.131E+02  0.131E+02
   2.010  0.129E+02  0.128E+02
   2.020  0.128E+02  0.127E+02
   2.030  0.127E+02  0.126E+02
   2.040  0.125E+02  0.125E+02
   2.050  0.124E+02  0.124E+02
   2.060  0.123E+02  0.123E+02
   2.070  0.122E+02  0.121E+02
   2.080  0.131E+02  0.131E+02
   2.090  0.147E+02  0.146E+02
   2.100  0.161E+02  0.161E+02
   2.110  0.181E+02  0.180E+02
   2.120  0.198E+02  0.198E+02
   2.130  0.213E+02  0.212E+02
   2.140  0.226E+02  0.225E+02
   2.150  0.237E+02  0.236E+02
   2.160  0.246E+02  0.245E+02
   2.170  0.255E+02  0.254E+02
   2.180  0.262E+02  0.261E+02
   2.190  0.269E+02  0.268E+02
   2.200  0.274E+02  0.273E+02
   2.210  0.280E+02  0.280E+02
   2.220  0.295E+02  0.294E+02
   2.230  0.305E+02  0.304E+02
   2.240  0.311E+02  0.310E+02
   2.250  0.316E+02  0.315E+02
   2.260  0.323E+02  0.321E+02
   2.270  0.332E+02  0.331E+02
   2.280  0.377E+02  0.375E+02
   2.290  0.447E+02  0.445E+02
   2.300  0.537E+02  0.535E+02
   2.310  0.628E+02  0.626E+02
   2.320  0.708E+02  0.706E+02
   2.330  0.779E+02  0.776E+02
   2.340  0.893E+02  0.890E+02
   2.350  0.823E+02  0.820E+02
   2.360  0.754E+02  0.752E+02
   2.370  0.667E+02  0.665E+02
   2.380  0.556E+02  0.554E+02
   2.390  0.415E+02  0.414E+02
   2.400  0.340E+02  0.339E+02
   2.410  0.291E+02  0.290E+02
   2.420  0.297E+02  0.296E+02
   2.430  0.502E+02  0.501E+02
   2.440  0.642E+02  0.640E+02
   2.450  0.677E+02  0.675E+02
   2.460  0.478E+02  0.476E+02
   2.470  0.340E+02  0.339E+02
   2.480  0.332E+02  0.331E+02
   2.490  0.322E+02  0.321E+02
   2.500  0.301E+02  0.300E+02
   2.510  0.290E+02  0.289E+02
   2.520  0.285E+02  0.284E+02
   2.530  0.286E+02  0.285E+02
   2.540  0.289E+02  0.288E+02
   2.550  0.295E+02  0.294E+02
   2.560  0.303E+02  0.302E+02
   2.570  0.313E+02  0.312E+02
   2.580  0.324E+02  0.323E+02
   2.590  0.337E+02  0.336E+02
   2.600  0.357E+02  0.355E+02
   2.610  0.409E+02  0.407E+02
   2.620  0.494E+02  0.492E+02
   2.630  0.595E+02  0.593E+02
   2.640  0.693E+02  0.691E+02
   2.650  0.781E+02  0.779E+02
   2.660  0.837E+02  0.835E+02
   2.670  0.839E+02  0.837E+02
   2.680  0.728E+02  0.726E+02
   2.690  0.507E+02  0.505E+02
   2.700  0.470E+02  0.469E+02
   2.710  0.453E+02  0.452E+02
   2.720  0.447E+02  0.446E+02
   2.730  0.443E+02  0.441E+02
   2.740  0.440E+02  0.439E+02
   2.750  0.435E+02  0.433E+02
   2.760  0.429E+02  0.427E+02
   2.770  0.422E+02  0.421E+02
   2.780  0.415E+02  0.414E+02
   2.790  0.412E+02  0.411E+02
   2.800  0.422E+02  0.421E+02
   2.810  0.414E+02  0.412E+02
   2.820  0.546E+02  0.545E+02
   2.830  0.466E+02  0.465E+02
   2.840  0.550E+02  0.549E+02
   2.850  0.556E+02  0.554E+02
   2.860  0.575E+02  0.573E+02
   2.870  0.625E+02  0.623E+02
   2.880  0.662E+02  0.660E+02
   2.890  0.662E+02  0.660E+02
   2.900  0.655E+02  0.653E+02
   2.910  0.649E+02  0.647E+02
   2.920  0.645E+02  0.644E+02
   2.930  0.621E+02  0.619E+02
   2.940  0.607E+02  0.605E+02
   2.950  0.631E+02  0.629E+02
   2.960  0.632E+02  0.630E+02
   2.970  0.603E+02  0.602E+02
   2.980  0.616E+02  0.615E+02
   2.990  0.635E+02  0.633E+02
   3.000  0.641E+02  0.639E+02
   3.010  0.657E+02  0.655E+02
   3.020  0.671E+02  0.669E+02
   3.030  0.682E+02  0.681E+02
   3.040  0.687E+02  0.685E+02
   3.050  0.690E+02  0.688E+02
   3.060  0.673E+02  0.671E+02
   3.070  0.656E+02  0.654E+02
   3.080  0.658E+02  0.656E+02
   3.090  0.675E+02  0.674E+02
   3.100  0.683E+02  0.682E+02
   3.110  0.653E+02  0.651E+02
   3.120  0.622E+02  0.620E+02
   3.130  0.597E+02  0.596E+02
   3.140  0.572E+02  0.570E+02
   3.150  0.560E+02  0.558E+02
   3.160  0.563E+02  0.561E+02
   3.170  0.574E+02  0.572E+02
   3.180  0.591E+02  0.589E+02
   3.190  0.614E+02  0.612E+02
   3.200  0.640E+02  0.638E+02
   3.210  0.746E+02  0.744E+02
   3.220  0.641E+02  0.640E+02
   3.230  0.647E+02  0.646E+02
   3.240  0.586E+02  0.585E+02
   3.250  0.516E+02  0.515E+02
   3.260  0.479E+02  0.478E+02
   3.270  0.470E+02  0.468E+02
   3.280  0.468E+02  0.467E+02
   3.290  0.464E+02  0.463E+02
   3.300  0.483E+02  0.482E+02
   3.310  0.526E+02  0.524E+02
   3.320  0.531E+02  0.529E+02
   3.330  0.604E+02  0.602E+02
   3.340  0.646E+02  0.644E+02
   3.350  0.744E+02  0.742E+02
   3.360  0.105E+03  0.105E+03
   3.370  0.108E+03  0.108E+03
   3.380  0.100E+03  0.100E+03
   3.390  0.914E+02  0.911E+02
   3.400  0.855E+02  0.852E+02
   3.410  0.804E+02  0.802E+02
   3.420  0.761E+02  0.759E+02
   3.430  0.716E+02  0.713E+02
   3.440  0.705E+02  0.702E+02
   3.450  0.699E+02  0.696E+02
   3.460  0.548E+02  0.547E+02
   3.470  0.478E+02  0.476E+02
   3.480  0.431E+02  0.430E+02
   3.490  0.401E+02  0.400E+02
   3.500  0.387E+02  0.386E+02
   3.510  0.378E+02  0.377E+02
   3.520  0.376E+02  0.375E+02
   3.530  0.382E+02  0.381E+02
   3.540  0.396E+02  0.394E+02
   3.550  0.416E+02  0.415E+02
   3.560  0.443E+02  0.441E+02
   3.570  0.476E+02  0.475E+02
   3.580  0.510E+02  0.508E+02
   3.590  0.540E+02  0.538E+02
   3.600  0.565E+02  0.563E+02
   3.610  0.600E+02  0.598E+02
   3.620  0.637E+02  0.635E+02
   3.630  0.672E+02  0.670E+02
   3.640  0.696E+02  0.694E+02
   3.650  0.728E+02  0.726E+02
   3.660  0.724E+02  0.722E+02
   3.670  0.707E+02  0.705E+02
   3.680  0.681E+02  0.679E+02
   3.690  0.659E+02  0.657E+02
   3.700  0.646E+02  0.644E+02
   3.710  0.637E+02  0.635E+02
   3.720  0.628E+02  0.626E+02
   3.730  0.623E+02  0.621E+02
   3.740  0.648E+02  0.647E+02
   3.750  0.683E+02  0.682E+02
   3.760  0.594E+02  0.593E+02
   3.770  0.594E+02  0.592E+02
   3.780  0.598E+02  0.596E+02
   3.790  0.605E+02  0.603E+02
   3.800  0.630E+02  0.628E+02
   3.810  0.686E+02  0.684E+02
   3.820  0.754E+02  0.752E+02
   3.830  0.855E+02  0.853E+02
   3.840  0.930E+02  0.927E+02
   3.850  0.953E+02  0.950E+02
   3.860  0.975E+02  0.972E+02
   3.870  0.897E+02  0.894E+02
   3.880  0.702E+02  0.700E+02
   3.890  0.565E+02  0.564E+02
   3.900  0.516E+02  0.514E+02
   3.910  0.506E+02  0.504E+02
   3.920  0.509E+02  0.508E+02
   3.930  0.504E+02  0.502E+02
   3.940  0.487E+02  0.485E+02
   3.950  0.469E+02  0.467E+02
   3.960  0.454E+02  0.453E+02
   3.970  0.441E+02  0.439E+02
   3.980  0.444E+02  0.443E+02
   3.990  0.444E+02  0.443E+02
   4.000  0.432E+02  0.431E+02
   4.010  0.417E+02  0.416E+02
   4.020  0.420E+02  0.419E+02
   4.030  0.427E+02  0.426E+02
   4.040  0.442E+02  0.441E+02
   4.050  0.457E+02  0.456E+02
   4.060  0.469E+02  0.468E+02
   4.070  0.480E+02  0.479E+02
   4.080  0.491E+02  0.490E+02
   4.090  0.510E+02  0.509E+02
   4.100  0.587E+02  0.585E+02
   4.110  0.651E+02  0.649E+02
   4.120  0.722E+02  0.720E+02
   4.130  0.740E+02  0.737E+02
   4.140  0.751E+02  0.749E+02
   4.150  0.847E+02  0.845E+02
   4.160  0.861E+02  0.859E+02
   4.170  0.812E+02  0.809E+02
   4.180  0.646E+02  0.644E+02
   4.190  0.597E+02  0.596E+02
   4.200  0.585E+02  0.583E+02
   4.210  0.587E+02  0.585E+02
   4.220  0.669E+02  0.667E+02
   4.230  0.753E+02  0.751E+02
   4.240  0.799E+02  0.797E+02
   4.250  0.782E+02  0.779E+02
   4.260  0.660E+02  0.658E+02
   4.270  0.521E+02  0.520E+02
   4.280  0.462E+02  0.460E+02
   4.290  0.431E+02  0.429E+02
   4.300  0.409E+02  0.407E+02
   4.310  0.392E+02  0.391E+02
   4.320  0.376E+02  0.375E+02
   4.330  0.356E+02  0.355E+02
   4.340  0.345E+02  0.344E+02
   4.350  0.338E+02  0.337E+02
   4.360  0.333E+02  0.332E+02
   4.370  0.329E+02  0.328E+02
   4.380  0.324E+02  0.323E+02
   4.390  0.319E+02  0.318E+02
   4.400  0.314E+02  0.313E+02
   4.410  0.311E+02  0.310E+02
   4.420  0.313E+02  0.312E+02
   4.430  0.328E+02  0.327E+02
   4.440  0.386E+02  0.385E+02
   4.450  0.390E+02  0.388E+02
   4.460  0.330E+02  0.329E+02
   4.470  0.323E+02  0.322E+02
   4.480  0.322E+02  0.321E+02
   4.490  0.320E+02  0.318E+02
   4.500  0.315E+02  0.314E+02
   4.510  0.308E+02  0.307E+02
   4.520  0.308E+02  0.307E+02
   4.530  0.323E+02  0.322E+02
   4.540  0.308E+02  0.307E+02
   4.550  0.226E+02  0.226E+02
   4.560  0.228E+02  0.227E+02
   4.570  0.273E+02  0.272E+02
   4.580  0.259E+02  0.258E+02
   4.590  0.242E+02  0.242E+02
   4.600  0.224E+02  0.224E+02
   4.610  0.207E+02  0.207E+02
   4.620  0.186E+02  0.186E+02
   4.630  0.168E+02  0.168E+02
   4.640  0.155E+02  0.154E+02
   4.650  0.147E+02  0.146E+02
   4.660  0.140E+02  0.139E+02
   4.670  0.134E+02  0.134E+02
   4.680  0.130E+02  0.130E+02
   4.690  0.127E+02  0.127E+02
   4.700  0.126E+02  0.126E+02
   4.710  0.134E+02  0.134E+02
   4.720  0.164E+02  0.164E+02
   4.730  0.226E+02  0.226E+02
   4.740  0.260E+02  0.259E+02
   4.750  0.247E+02  0.246E+02
   4.760  0.286E+02  0.285E+02
   4.770  0.333E+02  0.331E+02
   4.780  0.324E+02  0.323E+02
   4.790  0.274E+02  0.273E+02
   4.800  0.256E+02  0.255E+02
   4.810  0.225E+02  0.224E+02
   4.820  0.193E+02  0.193E+02
   4.830  0.165E+02  0.164E+02
   4.840  0.140E+02  0.140E+02
   4.850  0.120E+02  0.120E+02
   4.860  0.104E+02  0.104E+02
   4.870  0.921E+01  0.918E+01
   4.880  0.818E+01  0.815E+01
   4.890  0.721E+01  0.718E+01
   4.900  0.642E+01  0.640E+01
   4.910  0.591E+01  0.589E+01
   4.920  0.613E+01  0.610E+01
   4.930  0.668E+01  0.666E+01
   4.940  0.676E+01  0.674E+01
   4.950  0.640E+01  0.638E+01
   4.960  0.560E+01  0.558E+01
   4.970  0.434E+01  0.433E+01
   4.980  0.264E+01  0.263E+01
   4.990  0.108E+01  0.108E+01
   5.000  0.545E+00  0.543E+00
   5.010  0.238E+00  0.237E+00
   5.020  0.598E-01  0.596E-01
   5.030  0.396E-02  0.394E-02
   5.040  0.364E-03  0.363E-03
   5.050  0.000E+00  0.000E+00
   5.060  0.000E+00  0.000E+00
   5.070  0.000E+00  0.000E+00
   5.080  0.000E+00  0.000E+00
   5.090  0.000E+00  0.000E+00
   5.100  0.000E+00  0.000E+00
   5.110  0.000E+00  0.000E+00
   5.120  0.000E+00  0.000E+00
   5.130  0.000E+00  0.000E+00
   5.140  0.000E+00  0.000E+00
   5.150  0.000E+00  0.000E+00
   5.160  0.000E+00  0.000E+00
   5.170  0.000E+00  0.000E+00
   5.180  0.000E+00  0.000E+00
   5.190  0.000E+00  0.000E+00
   5.200  0.000E+00  0.000E+00
   5.210  0.000E+00  0.000E+00
   5.220  0.000E+00  0.000E+00
   5.230  0.000E+00  0.000E+00
   5.240  0.000E+00  0.000E+00
   5.250  0.000E+00  0.000E+00
   5.260  0.000E+00  0.000E+00
   5.270  0.000E+00  0.000E+00
   5.280  0.000E+00  0.000E+00
   5.290  0.000E+00  0.000E+00
   5.300  0.000E+00  0.000E+00
   5.310  0.000E+00  0.000E+00
   5.320  0.000E+00  0.000E+00
   5.330  0.000E+00  0.000E+00
   5.340  0.000E+00  0.000E+00
   5.350  0.000E+00  0.000E+00
   5.360  0.000E+00  0.000E+00
   5.370  0.000E+00  0.000E+00
   5.380  0.000E+00  0.000E+00
   5.390  0.000E+00  0.000E+00
   5.400  0.000E+00  0.000E+00
   5.410  0.000E+00  0.000E+00
   5.420  0.000E+00  0.000E+00
   5.430  0.000E+00  0.000E+00
   5.440  0.000E+00  0.000E+00
   5.450  0.000E+00  0.000E+00
   5.460  0.000E+00  0.000E+00
   5.470  0.000E+00  0.000E+00
   5.480  0.000E+00  0.000E+00
   5.490  0.000E+00  0.000E+00
   5.500  0.000E+00  0.000E+00
   5.510  0.000E+00  0.000E+00
   5.520  0.000E+00  0.000E+00
   5.530  0.000E+00  0.000E+00
   5.540  0.000E+00  0.000E+00
   5.550  0.000E+00  0.000E+00
   5.560  0.000E+00  0.000E+00
   5.570  0.000E+00  0.000E+00
   5.580  0.000E+00  0.000E+00
   5.590  0.000E+00  0.000E+00
   5.600  0.000E+00  0.000E+00
   5.610  0.000E+00  0.000E+00
   5.620  0.000E+00  0.000E+00
   5.630  0.000E+00  0.000E+00
   5.640  0.000E+00  0.000E+00
   5.650  0.000E+00  0.000E+00
   5.660  0.000E+00  0.000E+00
   5.670  0.000E+00  0.000E+00
   5.680  0.000E+00  0.000E+00
   5.690  0.000E+00  0.000E+00
   5.700  0.000E+00  0.000E+00
   5.710  0.000E+00  0.000E+00
   5.720  0.000E+00  0.000E+00
   5.730  0.000E+00  0.000E+00
   5.740  0.000E+00  0.000E+00
   5.750  0.000E+00  0.000E+00
   5.760  0.000E+00  0.000E+00
   5.770  0.000E+00  0.000E+00
   5.780  0.000E+00  0.000E+00
   5.790  0.000E+00  0.000E+00
   5.800  0.000E+00  0.000E+00
   5.810  0.000E+00  0.000E+00
   5.820  0.000E+00  0.000E+00
   5.830  0.000E+00  0.000E+00
   5.840  0.000E+00  0.000E+00
   5.850  0.000E+00  0.000E+00
   5.860  0.000E+00  0.000E+00
   5.870  0.000E+00  0.000E+00
   5.880  0.000E+00  0.000E+00
   5.890  0.000E+00  0.000E+00
   5.900  0.000E+00  0.000E+00
   5.910  0.000E+00  0.000E+00
   5.920  0.000E+00  0.000E+00
   5.930  0.000E+00  0.000E+00
   5.940  0.000E+00  0.000E+00
   5.950  0.000E+00  0.000E+00
   5.960  0.000E+00  0.000E+00
   5.970  0.000E+00  0.000E+00
   5.980  0.000E+00  0.000E+00
   5.990  0.000E+00  0.000E+00
   6.000  0.000E+00  0.000E+00
   6.010  0.000E+00  0.000E+00
   6.020  0.000E+00  0.000E+00
   6.030  0.000E+00  0.000E+00
   6.040  0.000E+00  0.000E+00
   6.050  0.000E+00  0.000E+00
   6.060  0.000E+00  0.000E+00
   6.070  0.000E+00  0.000E+00
   6.080  0.000E+00  0.000E+00
   6.090  0.000E+00  0.000E+00
   6.100  0.000E+00  0.000E+00
   6.110  0.000E+00  0.000E+00
   6.120  0.000E+00  0.000E+00
   6.130  0.000E+00  0.000E+00
   6.140  0.000E+00  0.000E+00
   6.150  0.000E+00  0.000E+00
   6.160  0.000E+00  0.000E+00
   6.170  0.000E+00  0.000E+00
   6.180  0.000E+00  0.000E+00
   6.190  0.000E+00  0.000E+00
   6.200  0.000E+00  0.000E+00
   6.210  0.000E+00  0.000E+00
   6.220  0.000E+00  0.000E+00
   6.230  0.000E+00  0.000E+00
   6.240  0.000E+00  0.000E+00
   6.250  0.000E+00  0.000E+00
   6.260  0.000E+00  0.000E+00
   6.270  0.000E+00  0.000E+00
   6.280  0.000E+00  0.000E+00
   6.290  0.000E+00  0.000E+00
   6.300  0.000E+00  0.000E+00
   6.310  0.000E+00  0.000E+00
   6.320  0.000E+00  0.000E+00
   6.330  0.000E+00  0.000E+00
   6.340  0.000E+00  0.000E+00
   6.350  0.000E+00  0.000E+00
   6.360  0.000E+00  0.000E+00
   6.370  0.000E+00  0.000E+00
   6.380  0.000E+00  0.000E+00
   6.390  0.000E+00  0.000E+00
   6.400  0.000E+00  0.000E+00
   6.410  0.000E+00  0.000E+00
   6.420  0.000E+00  0.000E+00
   6.430  0.000E+00  0.000E+00
