# E (eV)   ldos(E)   pdos(E)   
   0.000  0.367E-01  0.367E-01
   0.010  0.354E-01  0.354E-01
   0.020  0.397E-01  0.397E-01
   0.030  0.136E+00  0.136E+00
   0.040  0.121E+00  0.121E+00
   0.050  0.125E+00  0.125E+00
   0.060  0.710E-01  0.710E-01
   0.070  0.397E-01  0.397E-01
   0.080  0.367E-01  0.367E-01
   0.090  0.648E-01  0.648E-01
   0.100  0.774E-01  0.774E-01
   0.110  0.148E+00  0.148E+00
   0.120  0.125E+00  0.125E+00
   0.130  0.858E-01  0.858E-01
   0.140  0.588E-01  0.588E-01
   0.150  0.385E-01  0.385E-01
   0.160  0.295E-01  0.295E-01
   0.170  0.183E-01  0.183E-01
   0.180  0.523E-02  0.523E-02
   0.190  0.741E-03  0.741E-03
   0.200  0.281E-05  0.281E-05
   0.210  0.000E+00  0.000E+00
   0.220  0.000E+00  0.000E+00
   0.230  0.000E+00  0.000E+00
   0.240  0.000E+00  0.000E+00
   0.250  0.000E+00  0.000E+00
   0.260  0.000E+00  0.000E+00
   0.270  0.000E+00  0.000E+00
   0.280  0.000E+00  0.000E+00
   0.290  0.000E+00  0.000E+00
   0.300  0.000E+00  0.000E+00
   0.310  0.000E+00  0.000E+00
   0.320 -0.151E-09 -0.151E-09
   0.330 -0.506E-07 -0.506E-07
   0.340 -0.387E-06 -0.387E-06
   0.350 -0.998E-06 -0.998E-06
   0.360 -0.101E-05 -0.101E-05
   0.370  0.658E-06  0.658E-06
   0.380  0.509E-05  0.509E-05
   0.390  0.134E-04  0.134E-04
   0.400  0.266E-04  0.266E-04
   0.410  0.458E-04  0.458E-04
   0.420  0.722E-04  0.722E-04
   0.430  0.107E-03  0.107E-03
   0.440  0.151E-03  0.151E-03
   0.450  0.205E-03  0.205E-03
   0.460  0.273E-03  0.273E-03
   0.470  0.392E-03  0.392E-03
   0.480  0.605E-03  0.605E-03
   0.490  0.870E-03  0.870E-03
   0.500  0.115E-02  0.115E-02
   0.510  0.143E-02  0.143E-02
   0.520  0.167E-02  0.167E-02
   0.530  0.184E-02  0.184E-02
   0.540  0.192E-02  0.192E-02
   0.550  0.187E-02  0.187E-02
   0.560  0.170E-02  0.170E-02
   0.570  0.166E-02  0.166E-02
   0.580  0.179E-02  0.179E-02
   0.590  0.193E-02  0.193E-02
   0.600  0.208E-02  0.208E-02
   0.610  0.223E-02  0.223E-02
   0.620  0.240E-02  0.240E-02
   0.630  0.258E-02  0.258E-02
   0.640  0.277E-02  0.277E-02
   0.650  0.299E-02  0.299E-02
   0.660  0.321E-02  0.321E-02
   0.670  0.344E-02  0.344E-02
   0.680  0.377E-02  0.377E-02
   0.690  0.459E-02  0.459E-02
   0.700  0.568E-02  0.568E-02
   0.710  0.633E-02  0.633E-02
   0.720  0.657E-02  0.657E-02
   0.730  0.689E-02  0.689E-02
   0.740  0.731E-02  0.731E-02
   0.750  0.796E-02  0.796E-02
   0.760  0.920E-02  0.920E-02
   0.770  0.104E-01  0.104E-01
   0.780  0.108E-01  0.108E-01
   0.790  0.114E-01  0.114E-01
   0.800  0.121E-01  0.121E-01
   0.810  0.127E-01  0.127E-01
   0.820  0.132E-01  0.132E-01
   0.830  0.136E-01  0.136E-01
   0.840  0.140E-01  0.140E-01
   0.850  0.143E-01  0.143E-01
   0.860  0.146E-01  0.146E-01
   0.870  0.148E-01  0.148E-01
   0.880  0.153E-01  0.153E-01
   0.890  0.162E-01  0.162E-01
   0.900  0.170E-01  0.170E-01
   0.910  0.179E-01  0.179E-01
   0.920  0.192E-01  0.192E-01
   0.930  0.194E-01  0.194E-01
   0.940  0.191E-01  0.191E-01
   0.950  0.187E-01  0.187E-01
   0.960  0.183E-01  0.183E-01
   0.970  0.170E-01  0.170E-01
   0.980  0.186E-01  0.186E-01
   0.990  0.227E-01  0.227E-01
   1.000  0.284E-01  0.284E-01
   1.010  0.330E-01  0.330E-01
   1.020  0.285E-01  0.285E-01
   1.030  0.517E-01  0.517E-01
   1.040  0.505E-01  0.505E-01
   1.050  0.383E-01  0.383E-01
   1.060  0.309E-01  0.309E-01
   1.070  0.305E-01  0.305E-01
   1.080  0.258E-01  0.258E-01
   1.090  0.291E-01  0.291E-01
   1.100  0.307E-01  0.307E-01
   1.110  0.301E-01  0.301E-01
   1.120  0.268E-01  0.268E-01
   1.130  0.209E-01  0.209E-01
   1.140  0.159E-01  0.159E-01
   1.150  0.219E-01  0.219E-01
   1.160  0.303E-01  0.303E-01
   1.170  0.348E-01  0.348E-01
   1.180  0.353E-01  0.353E-01
   1.190  0.356E-01  0.356E-01
   1.200  0.380E-01  0.380E-01
   1.210  0.396E-01  0.396E-01
   1.220  0.413E-01  0.413E-01
   1.230  0.434E-01  0.434E-01
   1.240  0.458E-01  0.458E-01
   1.250  0.483E-01  0.483E-01
   1.260  0.514E-01  0.514E-01
   1.270  0.544E-01  0.544E-01
   1.280  0.566E-01  0.566E-01
   1.290  0.580E-01  0.580E-01
   1.300  0.583E-01  0.583E-01
   1.310  0.571E-01  0.571E-01
   1.320  0.540E-01  0.540E-01
   1.330  0.497E-01  0.497E-01
   1.340  0.475E-01  0.475E-01
   1.350  0.456E-01  0.456E-01
   1.360  0.443E-01  0.443E-01
   1.370  0.433E-01  0.433E-01
   1.380  0.424E-01  0.424E-01
   1.390  0.414E-01  0.414E-01
   1.400  0.403E-01  0.403E-01
   1.410  0.393E-01  0.393E-01
   1.420  0.384E-01  0.384E-01
   1.430  0.381E-01  0.381E-01
   1.440  0.393E-01  0.393E-01
   1.450  0.408E-01  0.408E-01
   1.460  0.418E-01  0.418E-01
   1.470  0.425E-01  0.425E-01
   1.480  0.429E-01  0.429E-01
   1.490  0.429E-01  0.429E-01
   1.500  0.427E-01  0.427E-01
   1.510  0.423E-01  0.423E-01
   1.520  0.416E-01  0.416E-01
   1.530  0.408E-01  0.408E-01
   1.540  0.397E-01  0.397E-01
   1.550  0.384E-01  0.384E-01
   1.560  0.371E-01  0.371E-01
   1.570  0.356E-01  0.356E-01
   1.580  0.340E-01  0.340E-01
   1.590  0.323E-01  0.323E-01
   1.600  0.305E-01  0.305E-01
   1.610  0.285E-01  0.285E-01
   1.620  0.271E-01  0.271E-01
   1.630  0.262E-01  0.262E-01
   1.640  0.256E-01  0.256E-01
   1.650  0.254E-01  0.254E-01
   1.660  0.255E-01  0.255E-01
   1.670  0.261E-01  0.261E-01
   1.680  0.277E-01  0.277E-01
   1.690  0.292E-01  0.292E-01
   1.700  0.314E-01  0.314E-01
   1.710  0.380E-01  0.380E-01
   1.720  0.424E-01  0.424E-01
   1.730  0.426E-01  0.426E-01
   1.740  0.394E-01  0.394E-01
   1.750  0.344E-01  0.344E-01
   1.760  0.290E-01  0.290E-01
   1.770  0.241E-01  0.241E-01
   1.780  0.212E-01  0.212E-01
   1.790  0.207E-01  0.207E-01
   1.800  0.212E-01  0.212E-01
   1.810  0.224E-01  0.224E-01
   1.820  0.244E-01  0.244E-01
   1.830  0.265E-01  0.265E-01
   1.840  0.286E-01  0.286E-01
   1.850  0.305E-01  0.305E-01
   1.860  0.324E-01  0.324E-01
   1.870  0.340E-01  0.340E-01
   1.880  0.355E-01  0.355E-01
   1.890  0.367E-01  0.367E-01
   1.900  0.377E-01  0.377E-01
   1.910  0.384E-01  0.384E-01
   1.920  0.388E-01  0.388E-01
   1.930  0.388E-01  0.388E-01
   1.940  0.384E-01  0.384E-01
   1.950  0.377E-01  0.377E-01
   1.960  0.366E-01  0.366E-01
   1.970  0.355E-01  0.355E-01
   1.980  0.346E-01  0.346E-01
   1.990  0.338E-01  0.338E-01
   2.000  0.328E-01  0.328E-01
   2.010  0.318E-01  0.318E-01
   2.020  0.308E-01  0.308E-01
   2.030  0.299E-01  0.299E-01
   2.040  0.289E-01  0.289E-01
   2.050  0.280E-01  0.280E-01
   2.060  0.271E-01  0.271E-01
   2.070  0.264E-01  0.264E-01
   2.080  0.258E-01  0.258E-01
   2.090  0.254E-01  0.254E-01
   2.100  0.251E-01  0.251E-01
   2.110  0.251E-01  0.251E-01
   2.120  0.253E-01  0.253E-01
   2.130  0.255E-01  0.255E-01
   2.140  0.257E-01  0.257E-01
   2.150  0.259E-01  0.259E-01
   2.160  0.262E-01  0.262E-01
   2.170  0.264E-01  0.264E-01
   2.180  0.266E-01  0.266E-01
   2.190  0.269E-01  0.269E-01
   2.200  0.272E-01  0.272E-01
   2.210  0.274E-01  0.274E-01
   2.220  0.283E-01  0.283E-01
   2.230  0.290E-01  0.290E-01
   2.240  0.305E-01  0.305E-01
   2.250  0.336E-01  0.336E-01
   2.260  0.419E-01  0.419E-01
   2.270  0.354E-01  0.354E-01
   2.280  0.336E-01  0.336E-01
   2.290  0.338E-01  0.338E-01
   2.300  0.335E-01  0.335E-01
   2.310  0.325E-01  0.325E-01
   2.320  0.311E-01  0.311E-01
   2.330  0.295E-01  0.295E-01
   2.340  0.287E-01  0.287E-01
   2.350  0.285E-01  0.285E-01
   2.360  0.283E-01  0.283E-01
   2.370  0.280E-01  0.280E-01
   2.380  0.277E-01  0.277E-01
   2.390  0.274E-01  0.274E-01
   2.400  0.271E-01  0.271E-01
   2.410  0.267E-01  0.267E-01
   2.420  0.262E-01  0.262E-01
   2.430  0.258E-01  0.258E-01
   2.440  0.253E-01  0.253E-01
   2.450  0.251E-01  0.251E-01
   2.460  0.258E-01  0.258E-01
   2.470  0.257E-01  0.257E-01
   2.480  0.247E-01  0.247E-01
   2.490  0.234E-01  0.234E-01
   2.500  0.225E-01  0.225E-01
   2.510  0.217E-01  0.217E-01
   2.520  0.209E-01  0.209E-01
   2.530  0.202E-01  0.202E-01
   2.540  0.196E-01  0.196E-01
   2.550  0.191E-01  0.191E-01
   2.560  0.187E-01  0.187E-01
   2.570  0.184E-01  0.184E-01
   2.580  0.182E-01  0.182E-01
   2.590  0.181E-01  0.181E-01
   2.600  0.181E-01  0.181E-01
   2.610  0.183E-01  0.183E-01
   2.620  0.196E-01  0.196E-01
   2.630  0.227E-01  0.227E-01
   2.640  0.271E-01  0.271E-01
   2.650  0.318E-01  0.318E-01
   2.660  0.362E-01  0.362E-01
   2.670  0.400E-01  0.400E-01
   2.680  0.427E-01  0.427E-01
   2.690  0.444E-01  0.444E-01
   2.700  0.450E-01  0.450E-01
   2.710  0.448E-01  0.448E-01
   2.720  0.444E-01  0.444E-01
   2.730  0.432E-01  0.432E-01
   2.740  0.498E-01  0.498E-01
   2.750  0.205E+00  0.205E+00
   2.760  0.581E-01  0.581E-01
   2.770  0.209E-01  0.209E-01
   2.780  0.115E-01  0.115E-01
   2.790  0.113E-01  0.113E-01
   2.800  0.114E-01  0.114E-01
   2.810  0.125E-01  0.125E-01
   2.820  0.178E-01  0.178E-01
   2.830  0.479E-01  0.479E-01
   2.840  0.488E-01  0.488E-01
   2.850  0.388E-01  0.388E-01
   2.860  0.229E-01  0.229E-01
   2.870  0.186E-01  0.186E-01
   2.880  0.145E-01  0.145E-01
   2.890  0.127E-01  0.127E-01
   2.900  0.123E-01  0.123E-01
   2.910  0.119E-01  0.119E-01
   2.920  0.115E-01  0.115E-01
   2.930  0.111E-01  0.111E-01
   2.940  0.107E-01  0.107E-01
   2.950  0.103E-01  0.103E-01
   2.960  0.982E-02  0.982E-02
   2.970  0.106E-01  0.106E-01
   2.980  0.149E-01  0.149E-01
   2.990  0.207E-01  0.207E-01
   3.000  0.287E-01  0.287E-01
   3.010  0.381E-01  0.381E-01
   3.020  0.411E-01  0.411E-01
   3.030  0.399E-01  0.399E-01
   3.040  0.377E-01  0.377E-01
   3.050  0.353E-01  0.353E-01
   3.060  0.328E-01  0.328E-01
   3.070  0.303E-01  0.303E-01
   3.080  0.279E-01  0.279E-01
   3.090  0.255E-01  0.255E-01
   3.100  0.234E-01  0.234E-01
   3.110  0.215E-01  0.215E-01
   3.120  0.186E-01  0.186E-01
   3.130  0.172E-01  0.172E-01
   3.140  0.169E-01  0.169E-01
   3.150  0.173E-01  0.173E-01
   3.160  0.179E-01  0.179E-01
   3.170  0.187E-01  0.187E-01
   3.180  0.191E-01  0.191E-01
   3.190  0.192E-01  0.192E-01
   3.200  0.190E-01  0.190E-01
   3.210  0.186E-01  0.186E-01
   3.220  0.192E-01  0.192E-01
   3.230  0.208E-01  0.208E-01
   3.240  0.242E-01  0.242E-01
   3.250  0.248E-01  0.248E-01
   3.260  0.248E-01  0.248E-01
   3.270  0.248E-01  0.248E-01
   3.280  0.248E-01  0.248E-01
   3.290  0.247E-01  0.247E-01
   3.300  0.246E-01  0.246E-01
   3.310  0.244E-01  0.244E-01
   3.320  0.241E-01  0.241E-01
   3.330  0.238E-01  0.238E-01
   3.340  0.232E-01  0.232E-01
   3.350  0.228E-01  0.228E-01
   3.360  0.227E-01  0.227E-01
   3.370  0.226E-01  0.226E-01
   3.380  0.224E-01  0.224E-01
   3.390  0.221E-01  0.221E-01
   3.400  0.239E-01  0.239E-01
   3.410  0.247E-01  0.247E-01
   3.420  0.266E-01  0.266E-01
   3.430  0.286E-01  0.286E-01
   3.440  0.301E-01  0.301E-01
   3.450  0.308E-01  0.308E-01
   3.460  0.306E-01  0.306E-01
   3.470  0.297E-01  0.297E-01
   3.480  0.293E-01  0.293E-01
   3.490  0.286E-01  0.286E-01
   3.500  0.278E-01  0.278E-01
   3.510  0.276E-01  0.276E-01
   3.520  0.279E-01  0.279E-01
   3.530  0.285E-01  0.285E-01
   3.540  0.293E-01  0.293E-01
   3.550  0.302E-01  0.302E-01
   3.560  0.312E-01  0.312E-01
   3.570  0.328E-01  0.328E-01
   3.580  0.341E-01  0.341E-01
   3.590  0.309E-01  0.309E-01
   3.600  0.280E-01  0.280E-01
   3.610  0.262E-01  0.262E-01
   3.620  0.246E-01  0.246E-01
   3.630  0.233E-01  0.233E-01
   3.640  0.218E-01  0.218E-01
   3.650  0.199E-01  0.199E-01
   3.660  0.187E-01  0.187E-01
   3.670  0.187E-01  0.187E-01
   3.680  0.149E-01  0.149E-01
   3.690  0.110E-01  0.110E-01
   3.700  0.105E-01  0.105E-01
   3.710  0.103E-01  0.103E-01
   3.720  0.109E-01  0.109E-01
   3.730  0.115E-01  0.115E-01
   3.740  0.124E-01  0.124E-01
   3.750  0.135E-01  0.135E-01
   3.760  0.149E-01  0.149E-01
   3.770  0.175E-01  0.175E-01
   3.780  0.198E-01  0.198E-01
   3.790  0.264E-01  0.264E-01
   3.800  0.194E-01  0.194E-01
   3.810  0.206E-01  0.206E-01
   3.820  0.256E-01  0.256E-01
   3.830  0.393E-01  0.393E-01
   3.840  0.478E-01  0.478E-01
   3.850  0.362E-01  0.362E-01
   3.860  0.332E-01  0.332E-01
   3.870  0.297E-01  0.297E-01
   3.880  0.258E-01  0.258E-01
   3.890  0.217E-01  0.217E-01
   3.900  0.177E-01  0.177E-01
   3.910  0.142E-01  0.142E-01
   3.920  0.108E-01  0.108E-01
   3.930  0.834E-02  0.834E-02
   3.940  0.686E-02  0.686E-02
   3.950  0.587E-02  0.587E-02
   3.960  0.530E-02  0.530E-02
   3.970  0.516E-02  0.516E-02
   3.980  0.533E-02  0.533E-02
   3.990  0.574E-02  0.574E-02
   4.000  0.638E-02  0.638E-02
   4.010  0.724E-02  0.724E-02
   4.020  0.830E-02  0.830E-02
   4.030  0.954E-02  0.954E-02
   4.040  0.109E-01  0.109E-01
   4.050  0.125E-01  0.125E-01
   4.060  0.142E-01  0.142E-01
   4.070  0.161E-01  0.161E-01
   4.080  0.182E-01  0.182E-01
   4.090  0.202E-01  0.202E-01
   4.100  0.221E-01  0.221E-01
   4.110  0.236E-01  0.236E-01
   4.120  0.258E-01  0.258E-01
   4.130  0.275E-01  0.275E-01
   4.140  0.266E-01  0.266E-01
   4.150  0.255E-01  0.255E-01
   4.160  0.230E-01  0.230E-01
   4.170  0.208E-01  0.208E-01
   4.180  0.188E-01  0.188E-01
   4.190  0.170E-01  0.170E-01
   4.200  0.155E-01  0.155E-01
   4.210  0.146E-01  0.146E-01
   4.220  0.142E-01  0.142E-01
   4.230  0.127E-01  0.127E-01
   4.240  0.111E-01  0.111E-01
   4.250  0.106E-01  0.106E-01
   4.260  0.101E-01  0.101E-01
   4.270  0.980E-02  0.980E-02
   4.280  0.958E-02  0.958E-02
   4.290  0.913E-02  0.913E-02
   4.300  0.888E-02  0.888E-02
   4.310  0.888E-02  0.888E-02
   4.320  0.930E-02  0.930E-02
   4.330  0.957E-02  0.957E-02
   4.340  0.951E-02  0.951E-02
   4.350  0.887E-02  0.887E-02
   4.360  0.956E-02  0.956E-02
   4.370  0.104E-01  0.104E-01
   4.380  0.110E-01  0.110E-01
   4.390  0.116E-01  0.116E-01
   4.400  0.123E-01  0.123E-01
   4.410  0.136E-01  0.136E-01
   4.420  0.153E-01  0.153E-01
   4.430  0.165E-01  0.165E-01
   4.440  0.119E-01  0.119E-01
   4.450  0.109E-01  0.109E-01
   4.460  0.947E-02  0.947E-02
   4.470  0.790E-02  0.790E-02
   4.480  0.612E-02  0.612E-02
   4.490  0.518E-02  0.518E-02
   4.500  0.504E-02  0.504E-02
   4.510  0.530E-02  0.530E-02
   4.520  0.563E-02  0.563E-02
   4.530  0.577E-02  0.577E-02
   4.540  0.595E-02  0.595E-02
   4.550  0.610E-02  0.610E-02
   4.560  0.622E-02  0.622E-02
   4.570  0.633E-02  0.633E-02
   4.580  0.644E-02  0.644E-02
   4.590  0.675E-02  0.675E-02
   4.600  0.739E-02  0.739E-02
   4.610  0.741E-02  0.741E-02
   4.620  0.730E-02  0.730E-02
   4.630  0.640E-02  0.640E-02
   4.640  0.583E-02  0.583E-02
   4.650  0.504E-02  0.504E-02
   4.660  0.392E-02  0.392E-02
   4.670  0.277E-02  0.277E-02
   4.680  0.180E-02  0.180E-02
   4.690  0.153E-02  0.153E-02
   4.700  0.152E-02  0.152E-02
   4.710  0.177E-02  0.177E-02
   4.720  0.238E-02  0.238E-02
   4.730  0.333E-02  0.333E-02
   4.740  0.449E-02  0.449E-02
   4.750  0.103E-01  0.103E-01
   4.760  0.946E-02  0.946E-02
   4.770  0.900E-02  0.900E-02
   4.780  0.834E-02  0.834E-02
   4.790  0.750E-02  0.750E-02
   4.800  0.686E-02  0.686E-02
   4.810  0.635E-02  0.635E-02
   4.820  0.597E-02  0.597E-02
   4.830  0.572E-02  0.572E-02
   4.840  0.557E-02  0.557E-02
   4.850  0.549E-02  0.549E-02
   4.860  0.540E-02  0.540E-02
   4.870  0.528E-02  0.528E-02
   4.880  0.513E-02  0.513E-02
   4.890  0.496E-02  0.496E-02
   4.900  0.478E-02  0.478E-02
   4.910  0.464E-02  0.464E-02
   4.920  0.453E-02  0.453E-02
   4.930  0.454E-02  0.454E-02
   4.940  0.479E-02  0.479E-02
   4.950  0.499E-02  0.499E-02
   4.960  0.467E-02  0.467E-02
   4.970  0.418E-02  0.418E-02
   4.980  0.383E-02  0.383E-02
   4.990  0.351E-02  0.351E-02
   5.000  0.315E-02  0.315E-02
   5.010  0.276E-02  0.276E-02
   5.020  0.236E-02  0.236E-02
   5.030  0.194E-02  0.194E-02
   5.040  0.152E-02  0.152E-02
   5.050  0.111E-02  0.111E-02
   5.060  0.838E-03  0.838E-03
   5.070  0.891E-03  0.891E-03
   5.080  0.111E-02  0.111E-02
   5.090  0.144E-02  0.144E-02
   5.100  0.196E-02  0.196E-02
   5.110  0.257E-02  0.257E-02
   5.120  0.311E-02  0.311E-02
   5.130  0.355E-02  0.355E-02
   5.140  0.376E-02  0.376E-02
   5.150  0.365E-02  0.365E-02
   5.160  0.272E-02  0.272E-02
   5.170  0.153E-02  0.153E-02
   5.180  0.826E-03  0.826E-03
   5.190  0.577E-03  0.577E-03
   5.200  0.567E-03  0.567E-03
   5.210  0.548E-03  0.548E-03
   5.220  0.539E-03  0.539E-03
   5.230  0.641E-03  0.641E-03
   5.240  0.961E-03  0.961E-03
   5.250  0.136E-02  0.136E-02
   5.260  0.159E-02  0.159E-02
   5.270  0.159E-02  0.159E-02
   5.280  0.170E-02  0.170E-02
   5.290  0.188E-02  0.188E-02
   5.300  0.183E-02  0.183E-02
   5.310  0.159E-02  0.159E-02
   5.320  0.128E-02  0.128E-02
   5.330  0.107E-02  0.107E-02
   5.340  0.875E-03  0.875E-03
   5.350  0.714E-03  0.714E-03
   5.360  0.582E-03  0.582E-03
   5.370  0.475E-03  0.475E-03
   5.380  0.390E-03  0.390E-03
   5.390  0.319E-03  0.319E-03
   5.400  0.260E-03  0.260E-03
   5.410  0.209E-03  0.209E-03
   5.420  0.163E-03  0.163E-03
   5.430  0.124E-03  0.124E-03
   5.440  0.892E-04  0.892E-04
   5.450  0.577E-04  0.577E-04
   5.460  0.236E-04  0.236E-04
   5.470 -0.575E-05 -0.575E-05
   5.480 -0.260E-04 -0.260E-04
   5.490 -0.374E-04 -0.374E-04
   5.500 -0.403E-04 -0.403E-04
   5.510 -0.351E-04 -0.351E-04
   5.520 -0.218E-04 -0.218E-04
   5.530 -0.427E-05 -0.427E-05
   5.540 -0.363E-07 -0.363E-07
   5.550  0.111E-06  0.111E-06
   5.560 -0.155E-07 -0.155E-07
   5.570 -0.958E-07 -0.958E-07
   5.580 -0.578E-07 -0.578E-07
   5.590 -0.103E-07 -0.103E-07
   5.600  0.000E+00  0.000E+00
   5.610  0.000E+00  0.000E+00
   5.620  0.000E+00  0.000E+00
   5.630  0.000E+00  0.000E+00
   5.640  0.000E+00  0.000E+00
   5.650  0.000E+00  0.000E+00
   5.660  0.000E+00  0.000E+00
   5.670  0.000E+00  0.000E+00
   5.680  0.000E+00  0.000E+00
   5.690  0.000E+00  0.000E+00
   5.700  0.000E+00  0.000E+00
   5.710  0.000E+00  0.000E+00
   5.720  0.000E+00  0.000E+00
   5.730  0.000E+00  0.000E+00
   5.740  0.000E+00  0.000E+00
   5.750  0.000E+00  0.000E+00
   5.760  0.000E+00  0.000E+00
   5.770  0.000E+00  0.000E+00
   5.780  0.000E+00  0.000E+00
   5.790  0.000E+00  0.000E+00
   5.800  0.000E+00  0.000E+00
   5.810  0.000E+00  0.000E+00
   5.820  0.000E+00  0.000E+00
   5.830  0.000E+00  0.000E+00
   5.840  0.000E+00  0.000E+00
   5.850  0.000E+00  0.000E+00
   5.860  0.000E+00  0.000E+00
   5.870  0.000E+00  0.000E+00
   5.880  0.000E+00  0.000E+00
   5.890  0.000E+00  0.000E+00
   5.900  0.000E+00  0.000E+00
   5.910  0.000E+00  0.000E+00
   5.920  0.000E+00  0.000E+00
   5.930  0.000E+00  0.000E+00
   5.940  0.000E+00  0.000E+00
   5.950  0.000E+00  0.000E+00
   5.960  0.000E+00  0.000E+00
   5.970  0.000E+00  0.000E+00
   5.980  0.000E+00  0.000E+00
   5.990  0.000E+00  0.000E+00
   6.000  0.000E+00  0.000E+00
   6.010  0.000E+00  0.000E+00
   6.020  0.000E+00  0.000E+00
   6.030  0.000E+00  0.000E+00
   6.040  0.000E+00  0.000E+00
   6.050  0.000E+00  0.000E+00
   6.060  0.000E+00  0.000E+00
   6.070  0.000E+00  0.000E+00
   6.080  0.000E+00  0.000E+00
   6.090  0.000E+00  0.000E+00
   6.100  0.000E+00  0.000E+00
   6.110  0.000E+00  0.000E+00
   6.120  0.000E+00  0.000E+00
   6.130  0.000E+00  0.000E+00
   6.140  0.000E+00  0.000E+00
   6.150  0.000E+00  0.000E+00
   6.160  0.000E+00  0.000E+00
   6.170  0.000E+00  0.000E+00
   6.180  0.000E+00  0.000E+00
   6.190  0.000E+00  0.000E+00
   6.200  0.000E+00  0.000E+00
   6.210  0.000E+00  0.000E+00
   6.220  0.000E+00  0.000E+00
   6.230  0.000E+00  0.000E+00
   6.240  0.000E+00  0.000E+00
   6.250  0.000E+00  0.000E+00
   6.260  0.000E+00  0.000E+00
   6.270  0.000E+00  0.000E+00
   6.280  0.000E+00  0.000E+00
   6.290  0.000E+00  0.000E+00
   6.300  0.000E+00  0.000E+00
   6.310  0.000E+00  0.000E+00
   6.320  0.000E+00  0.000E+00
   6.330  0.000E+00  0.000E+00
   6.340  0.000E+00  0.000E+00
   6.350  0.000E+00  0.000E+00
   6.360  0.000E+00  0.000E+00
   6.370  0.000E+00  0.000E+00
   6.380  0.000E+00  0.000E+00
   6.390  0.000E+00  0.000E+00
   6.400  0.000E+00  0.000E+00
   6.410  0.000E+00  0.000E+00
   6.420  0.000E+00  0.000E+00
   6.430  0.000E+00  0.000E+00
