#  E (eV)   dosup(E)     dosdw(E)   Int dos(E) EFermi =    7.442 eV
   0.000  0.5764E+02  0.5764E+02  0.3638E+03
   0.010  0.6779E+02  0.6779E+02  0.3650E+03
   0.020  0.8745E+02  0.8745E+02  0.3665E+03
   0.030  0.7995E+02  0.7995E+02  0.3682E+03
   0.040  0.7548E+02  0.7548E+02  0.3698E+03
   0.050  0.6950E+02  0.6950E+02  0.3712E+03
   0.060  0.6243E+02  0.6243E+02  0.3725E+03
   0.070  0.6874E+02  0.6874E+02  0.3738E+03
   0.080  0.6056E+02  0.6056E+02  0.3751E+03
   0.090  0.6445E+02  0.6445E+02  0.3762E+03
   0.100  0.6678E+02  0.6678E+02  0.3775E+03
   0.110  0.6868E+02  0.6868E+02  0.3788E+03
   0.120  0.6529E+02  0.6529E+02  0.3802E+03
   0.130  0.5275E+02  0.5275E+02  0.3814E+03
   0.140  0.3640E+02  0.3640E+02  0.3823E+03
   0.150  0.2590E+02  0.2590E+02  0.3830E+03
   0.160  0.1888E+02  0.1888E+02  0.3834E+03
   0.170  0.1372E+02  0.1372E+02  0.3837E+03
   0.180  0.6637E+01  0.6637E+01  0.3840E+03
   0.190  0.1006E+00  0.1006E+00  0.3840E+03
   0.200  0.0000E+00  0.0000E+00  0.3840E+03
   0.210  0.0000E+00  0.0000E+00  0.3840E+03
   0.220  0.0000E+00  0.0000E+00  0.3840E+03
   0.230  0.0000E+00  0.0000E+00  0.3840E+03
   0.240  0.0000E+00  0.0000E+00  0.3840E+03
   0.250  0.0000E+00  0.0000E+00  0.3840E+03
   0.260  0.0000E+00  0.0000E+00  0.3840E+03
   0.270  0.0000E+00  0.0000E+00  0.3840E+03
   0.280  0.0000E+00  0.0000E+00  0.3840E+03
   0.290  0.0000E+00  0.0000E+00  0.3840E+03
   0.300  0.0000E+00  0.0000E+00  0.3840E+03
   0.310  0.0000E+00  0.0000E+00  0.3840E+03
   0.320  0.0000E+00  0.0000E+00  0.3840E+03
   0.330  0.0000E+00  0.0000E+00  0.3840E+03
   0.340  0.4199E-04  0.4200E-04  0.3840E+03
   0.350  0.8516E-03  0.8516E-03  0.3840E+03
   0.360  0.9626E-02  0.9626E-02  0.3840E+03
   0.370  0.4476E-01  0.4476E-01  0.3840E+03
   0.380  0.1128E+00  0.1128E+00  0.3840E+03
   0.390  0.2162E+00  0.2162E+00  0.3840E+03
   0.400  0.4165E+00  0.4165E+00  0.3840E+03
   0.410  0.7702E+00  0.7702E+00  0.3840E+03
   0.420  0.1243E+01  0.1243E+01  0.3840E+03
   0.430  0.1841E+01  0.1841E+01  0.3841E+03
   0.440  0.2230E+01  0.2230E+01  0.3841E+03
   0.450  0.2423E+01  0.2423E+01  0.3842E+03
   0.460  0.2431E+01  0.2431E+01  0.3842E+03
   0.470  0.2322E+01  0.2322E+01  0.3843E+03
   0.480  0.2429E+01  0.2429E+01  0.3843E+03
   0.490  0.2632E+01  0.2632E+01  0.3844E+03
   0.500  0.2946E+01  0.2946E+01  0.3844E+03
   0.510  0.3497E+01  0.3497E+01  0.3845E+03
   0.520  0.3994E+01  0.3994E+01  0.3846E+03
   0.530  0.4384E+01  0.4384E+01  0.3846E+03
   0.540  0.4332E+01  0.4332E+01  0.3847E+03
   0.550  0.4073E+01  0.4073E+01  0.3848E+03
   0.560  0.3982E+01  0.3982E+01  0.3849E+03
   0.570  0.4144E+01  0.4144E+01  0.3850E+03
   0.580  0.4337E+01  0.4337E+01  0.3851E+03
   0.590  0.4546E+01  0.4546E+01  0.3851E+03
   0.600  0.4784E+01  0.4784E+01  0.3852E+03
   0.610  0.5052E+01  0.5052E+01  0.3853E+03
   0.620  0.5351E+01  0.5351E+01  0.3854E+03
   0.630  0.5680E+01  0.5680E+01  0.3855E+03
   0.640  0.6060E+01  0.6060E+01  0.3857E+03
   0.650  0.6559E+01  0.6559E+01  0.3858E+03
   0.660  0.7104E+01  0.7104E+01  0.3859E+03
   0.670  0.7954E+01  0.7954E+01  0.3861E+03
   0.680  0.9499E+01  0.9499E+01  0.3862E+03
   0.690  0.1017E+02  0.1017E+02  0.3865E+03
   0.700  0.1008E+02  0.1008E+02  0.3867E+03
   0.710  0.1020E+02  0.1020E+02  0.3869E+03
   0.720  0.1006E+02  0.1006E+02  0.3871E+03
   0.730  0.9726E+01  0.9726E+01  0.3873E+03
   0.740  0.9496E+01  0.9496E+01  0.3875E+03
   0.750  0.9195E+01  0.9195E+01  0.3876E+03
   0.760  0.8676E+01  0.8676E+01  0.3878E+03
   0.770  0.8360E+01  0.8360E+01  0.3880E+03
   0.780  0.8370E+01  0.8370E+01  0.3882E+03
   0.790  0.8576E+01  0.8576E+01  0.3883E+03
   0.800  0.8914E+01  0.8914E+01  0.3885E+03
   0.810  0.9292E+01  0.9292E+01  0.3887E+03
   0.820  0.9795E+01  0.9795E+01  0.3889E+03
   0.830  0.1060E+02  0.1060E+02  0.3891E+03
   0.840  0.1181E+02  0.1181E+02  0.3893E+03
   0.850  0.1322E+02  0.1322E+02  0.3895E+03
   0.860  0.1489E+02  0.1489E+02  0.3898E+03
   0.870  0.1701E+02  0.1701E+02  0.3901E+03
   0.880  0.1817E+02  0.1817E+02  0.3905E+03
   0.890  0.1907E+02  0.1907E+02  0.3909E+03
   0.900  0.1970E+02  0.1970E+02  0.3913E+03
   0.910  0.2056E+02  0.2056E+02  0.3917E+03
   0.920  0.2071E+02  0.2071E+02  0.3921E+03
   0.930  0.2046E+02  0.2046E+02  0.3925E+03
   0.940  0.1982E+02  0.1982E+02  0.3929E+03
   0.950  0.1905E+02  0.1905E+02  0.3933E+03
   0.960  0.1859E+02  0.1859E+02  0.3937E+03
   0.970  0.1781E+02  0.1781E+02  0.3940E+03
   0.980  0.1736E+02  0.1736E+02  0.3944E+03
   0.990  0.1787E+02  0.1787E+02  0.3947E+03
   1.000  0.2284E+02  0.2284E+02  0.3951E+03
   1.010  0.2845E+02  0.2845E+02  0.3956E+03
   1.020  0.6069E+02  0.6069E+02  0.3964E+03
   1.030  0.5257E+02  0.5257E+02  0.3976E+03
   1.040  0.5683E+02  0.5683E+02  0.3987E+03
   1.050  0.8589E+02  0.8589E+02  0.4000E+03
   1.060  0.7485E+02  0.7485E+02  0.4020E+03
   1.070  0.5963E+02  0.5963E+02  0.4033E+03
   1.080  0.6162E+02  0.6162E+02  0.4045E+03
   1.090  0.3656E+02  0.3656E+02  0.4056E+03
   1.100  0.3148E+02  0.3148E+02  0.4063E+03
   1.110  0.2737E+02  0.2737E+02  0.4069E+03
   1.120  0.2364E+02  0.2364E+02  0.4074E+03
   1.130  0.2449E+02  0.2449E+02  0.4078E+03
   1.140  0.3257E+02  0.3257E+02  0.4084E+03
   1.150  0.3120E+02  0.3119E+02  0.4091E+03
   1.160  0.2594E+02  0.2594E+02  0.4096E+03
   1.170  0.2254E+02  0.2254E+02  0.4101E+03
   1.180  0.2468E+02  0.2468E+02  0.4106E+03
   1.190  0.2631E+02  0.2631E+02  0.4111E+03
   1.200  0.2612E+02  0.2612E+02  0.4116E+03
   1.210  0.2533E+02  0.2533E+02  0.4122E+03
   1.220  0.2448E+02  0.2448E+02  0.4127E+03
   1.230  0.2376E+02  0.2376E+02  0.4131E+03
   1.240  0.2304E+02  0.2304E+02  0.4136E+03
   1.250  0.2201E+02  0.2201E+02  0.4141E+03
   1.260  0.2107E+02  0.2107E+02  0.4145E+03
   1.270  0.2015E+02  0.2015E+02  0.4149E+03
   1.280  0.1949E+02  0.1949E+02  0.4153E+03
   1.290  0.1924E+02  0.1924E+02  0.4157E+03
   1.300  0.1908E+02  0.1908E+02  0.4161E+03
   1.310  0.1949E+02  0.1949E+02  0.4165E+03
   1.320  0.1943E+02  0.1943E+02  0.4168E+03
   1.330  0.1895E+02  0.1895E+02  0.4172E+03
   1.340  0.1659E+02  0.1659E+02  0.4176E+03
   1.350  0.1573E+02  0.1573E+02  0.4179E+03
   1.360  0.1679E+02  0.1679E+02  0.4182E+03
   1.370  0.1756E+02  0.1756E+02  0.4186E+03
   1.380  0.1777E+02  0.1777E+02  0.4189E+03
   1.390  0.1741E+02  0.1741E+02  0.4193E+03
   1.400  0.1689E+02  0.1689E+02  0.4196E+03
   1.410  0.1606E+02  0.1606E+02  0.4200E+03
   1.420  0.1532E+02  0.1532E+02  0.4203E+03
   1.430  0.1459E+02  0.1459E+02  0.4206E+03
   1.440  0.1402E+02  0.1402E+02  0.4209E+03
   1.450  0.1375E+02  0.1375E+02  0.4211E+03
   1.460  0.1351E+02  0.1351E+02  0.4214E+03
   1.470  0.1331E+02  0.1331E+02  0.4217E+03
   1.480  0.1324E+02  0.1324E+02  0.4219E+03
   1.490  0.1344E+02  0.1344E+02  0.4222E+03
   1.500  0.1356E+02  0.1356E+02  0.4225E+03
   1.510  0.1358E+02  0.1358E+02  0.4227E+03
   1.520  0.1332E+02  0.1332E+02  0.4230E+03
   1.530  0.1304E+02  0.1304E+02  0.4233E+03
   1.540  0.1292E+02  0.1292E+02  0.4235E+03
   1.550  0.1275E+02  0.1275E+02  0.4238E+03
   1.560  0.1228E+02  0.1228E+02  0.4240E+03
   1.570  0.1189E+02  0.1189E+02  0.4243E+03
   1.580  0.1154E+02  0.1154E+02  0.4245E+03
   1.590  0.1121E+02  0.1121E+02  0.4248E+03
   1.600  0.1091E+02  0.1091E+02  0.4250E+03
   1.610  0.1063E+02  0.1063E+02  0.4252E+03
   1.620  0.1030E+02  0.1030E+02  0.4254E+03
   1.630  0.1005E+02  0.1005E+02  0.4256E+03
   1.640  0.1000E+02  0.1000E+02  0.4258E+03
   1.650  0.1007E+02  0.1007E+02  0.4260E+03
   1.660  0.1023E+02  0.1023E+02  0.4262E+03
   1.670  0.1045E+02  0.1045E+02  0.4264E+03
   1.680  0.1072E+02  0.1072E+02  0.4266E+03
   1.690  0.1096E+02  0.1096E+02  0.4268E+03
   1.700  0.1094E+02  0.1094E+02  0.4271E+03
   1.710  0.1076E+02  0.1076E+02  0.4273E+03
   1.720  0.1032E+02  0.1032E+02  0.4275E+03
   1.730  0.9528E+01  0.9528E+01  0.4277E+03
   1.740  0.8570E+01  0.8570E+01  0.4279E+03
   1.750  0.7738E+01  0.7738E+01  0.4280E+03
   1.760  0.7425E+01  0.7425E+01  0.4282E+03
   1.770  0.8418E+01  0.8418E+01  0.4283E+03
   1.780  0.8516E+01  0.8516E+01  0.4285E+03
   1.790  0.8091E+01  0.8091E+01  0.4287E+03
   1.800  0.7903E+01  0.7903E+01  0.4288E+03
   1.810  0.8061E+01  0.8061E+01  0.4290E+03
   1.820  0.8204E+01  0.8204E+01  0.4292E+03
   1.830  0.8315E+01  0.8315E+01  0.4293E+03
   1.840  0.8386E+01  0.8386E+01  0.4295E+03
   1.850  0.8423E+01  0.8423E+01  0.4297E+03
   1.860  0.8427E+01  0.8427E+01  0.4298E+03
   1.870  0.8397E+01  0.8397E+01  0.4300E+03
   1.880  0.8331E+01  0.8331E+01  0.4302E+03
   1.890  0.8229E+01  0.8229E+01  0.4303E+03
   1.900  0.8112E+01  0.8112E+01  0.4305E+03
   1.910  0.8026E+01  0.8026E+01  0.4307E+03
   1.920  0.7985E+01  0.7985E+01  0.4308E+03
   1.930  0.8028E+01  0.8028E+01  0.4310E+03
   1.940  0.8116E+01  0.8116E+01  0.4311E+03
   1.950  0.8188E+01  0.8188E+01  0.4313E+03
   1.960  0.8242E+01  0.8242E+01  0.4315E+03
   1.970  0.8272E+01  0.8272E+01  0.4316E+03
   1.980  0.8269E+01  0.8269E+01  0.4318E+03
   1.990  0.8242E+01  0.8242E+01  0.4320E+03
   2.000  0.8215E+01  0.8215E+01  0.4321E+03
   2.010  0.8194E+01  0.8194E+01  0.4323E+03
   2.020  0.8172E+01  0.8172E+01  0.4324E+03
   2.030  0.8143E+01  0.8143E+01  0.4326E+03
   2.040  0.7998E+01  0.7998E+01  0.4328E+03
   2.050  0.8135E+01  0.8135E+01  0.4329E+03
   2.060  0.7956E+01  0.7956E+01  0.4331E+03
   2.070  0.7623E+01  0.7623E+01  0.4333E+03
   2.080  0.7500E+01  0.7500E+01  0.4334E+03
   2.090  0.7448E+01  0.7448E+01  0.4336E+03
   2.100  0.7423E+01  0.7423E+01  0.4337E+03
   2.110  0.7391E+01  0.7391E+01  0.4338E+03
   2.120  0.7336E+01  0.7336E+01  0.4340E+03
   2.130  0.7253E+01  0.7253E+01  0.4341E+03
   2.140  0.7125E+01  0.7125E+01  0.4343E+03
   2.150  0.6941E+01  0.6941E+01  0.4344E+03
   2.160  0.6689E+01  0.6689E+01  0.4346E+03
   2.170  0.6448E+01  0.6448E+01  0.4347E+03
   2.180  0.6177E+01  0.6177E+01  0.4348E+03
   2.190  0.5902E+01  0.5902E+01  0.4349E+03
   2.200  0.5718E+01  0.5718E+01  0.4351E+03
   2.210  0.5574E+01  0.5574E+01  0.4352E+03
   2.220  0.5431E+01  0.5431E+01  0.4353E+03
   2.230  0.5299E+01  0.5299E+01  0.4354E+03
   2.240  0.5181E+01  0.5181E+01  0.4355E+03
   2.250  0.5077E+01  0.5077E+01  0.4356E+03
   2.260  0.4996E+01  0.4996E+01  0.4357E+03
   2.270  0.4950E+01  0.4950E+01  0.4358E+03
   2.280  0.4936E+01  0.4936E+01  0.4359E+03
   2.290  0.4947E+01  0.4947E+01  0.4360E+03
   2.300  0.4976E+01  0.4976E+01  0.4361E+03
   2.310  0.5016E+01  0.5016E+01  0.4362E+03
   2.320  0.5068E+01  0.5068E+01  0.4363E+03
   2.330  0.5133E+01  0.5133E+01  0.4364E+03
   2.340  0.5238E+01  0.5238E+01  0.4365E+03
   2.350  0.5377E+01  0.5377E+01  0.4366E+03
   2.360  0.5285E+01  0.5285E+01  0.4367E+03
   2.370  0.5385E+01  0.5385E+01  0.4368E+03
   2.380  0.5646E+01  0.5646E+01  0.4369E+03
   2.390  0.5991E+01  0.5991E+01  0.4370E+03
   2.400  0.6176E+01  0.6176E+01  0.4372E+03
   2.410  0.6231E+01  0.6231E+01  0.4373E+03
   2.420  0.6299E+01  0.6299E+01  0.4374E+03
   2.430  0.6386E+01  0.6386E+01  0.4375E+03
   2.440  0.6451E+01  0.6451E+01  0.4377E+03
   2.450  0.6508E+01  0.6508E+01  0.4378E+03
   2.460  0.6570E+01  0.6570E+01  0.4379E+03
   2.470  0.6677E+01  0.6677E+01  0.4381E+03
   2.480  0.7356E+01  0.7356E+01  0.4382E+03
   2.490  0.8006E+01  0.8006E+01  0.4384E+03
   2.500  0.8505E+01  0.8505E+01  0.4385E+03
   2.510  0.9301E+01  0.9301E+01  0.4387E+03
   2.520  0.1021E+02  0.1021E+02  0.4389E+03
   2.530  0.1108E+02  0.1108E+02  0.4391E+03
   2.540  0.1174E+02  0.1174E+02  0.4393E+03
   2.550  0.1218E+02  0.1218E+02  0.4396E+03
   2.560  0.1244E+02  0.1244E+02  0.4398E+03
   2.570  0.1263E+02  0.1263E+02  0.4401E+03
   2.580  0.1301E+02  0.1301E+02  0.4403E+03
   2.590  0.1347E+02  0.1347E+02  0.4406E+03
   2.600  0.1420E+02  0.1420E+02  0.4409E+03
   2.610  0.1540E+02  0.1540E+02  0.4412E+03
   2.620  0.1639E+02  0.1639E+02  0.4415E+03
   2.630  0.1688E+02  0.1688E+02  0.4418E+03
   2.640  0.1707E+02  0.1707E+02  0.4422E+03
   2.650  0.1693E+02  0.1693E+02  0.4425E+03
   2.660  0.1798E+02  0.1798E+02  0.4429E+03
   2.670  0.1762E+02  0.1762E+02  0.4432E+03
   2.680  0.1954E+02  0.1954E+02  0.4436E+03
   2.690  0.2500E+02  0.2500E+02  0.4440E+03
   2.700  0.3001E+02  0.3001E+02  0.4446E+03
   2.710  0.3453E+02  0.3453E+02  0.4452E+03
   2.720  0.3370E+02  0.3370E+02  0.4459E+03
   2.730  0.2703E+02  0.2703E+02  0.4465E+03
   2.740  0.2194E+02  0.2194E+02  0.4470E+03
   2.750  0.2128E+02  0.2128E+02  0.4475E+03
   2.760  0.2149E+02  0.2149E+02  0.4479E+03
   2.770  0.2283E+02  0.2283E+02  0.4483E+03
   2.780  0.2398E+02  0.2398E+02  0.4488E+03
   2.790  0.2311E+02  0.2311E+02  0.4493E+03
   2.800  0.2248E+02  0.2248E+02  0.4497E+03
   2.810  0.2209E+02  0.2209E+02  0.4502E+03
   2.820  0.2209E+02  0.2209E+02  0.4506E+03
   2.830  0.2207E+02  0.2207E+02  0.4510E+03
   2.840  0.2230E+02  0.2230E+02  0.4515E+03
   2.850  0.2203E+02  0.2203E+02  0.4519E+03
   2.860  0.2119E+02  0.2119E+02  0.4524E+03
   2.870  0.2165E+02  0.2165E+02  0.4528E+03
   2.880  0.2043E+02  0.2043E+02  0.4532E+03
   2.890  0.2024E+02  0.2024E+02  0.4536E+03
   2.900  0.1690E+02  0.1690E+02  0.4540E+03
   2.910  0.1727E+02  0.1727E+02  0.4543E+03
   2.920  0.1846E+02  0.1846E+02  0.4547E+03
   2.930  0.1972E+02  0.1972E+02  0.4551E+03
   2.940  0.2036E+02  0.2036E+02  0.4555E+03
   2.950  0.2059E+02  0.2059E+02  0.4559E+03
   2.960  0.2083E+02  0.2083E+02  0.4563E+03
   2.970  0.2119E+02  0.2119E+02  0.4567E+03
   2.980  0.2161E+02  0.2161E+02  0.4571E+03
   2.990  0.2188E+02  0.2188E+02  0.4576E+03
   3.000  0.2197E+02  0.2197E+02  0.4580E+03
   3.010  0.2196E+02  0.2196E+02  0.4585E+03
   3.020  0.2235E+02  0.2235E+02  0.4589E+03
   3.030  0.2394E+02  0.2394E+02  0.4594E+03
   3.040  0.2522E+02  0.2522E+02  0.4598E+03
   3.050  0.2350E+02  0.2350E+02  0.4604E+03
   3.060  0.2165E+02  0.2165E+02  0.4608E+03
   3.070  0.2176E+02  0.2176E+02  0.4612E+03
   3.080  0.2207E+02  0.2207E+02  0.4617E+03
   3.090  0.2296E+02  0.2296E+02  0.4621E+03
   3.100  0.2456E+02  0.2456E+02  0.4626E+03
   3.110  0.2637E+02  0.2637E+02  0.4631E+03
   3.120  0.2691E+02  0.2691E+02  0.4636E+03
   3.130  0.2591E+02  0.2591E+02  0.4642E+03
   3.140  0.2602E+02  0.2602E+02  0.4647E+03
   3.150  0.2672E+02  0.2672E+02  0.4652E+03
   3.160  0.2600E+02  0.2600E+02  0.4657E+03
   3.170  0.2499E+02  0.2499E+02  0.4663E+03
   3.180  0.2428E+02  0.2428E+02  0.4667E+03
   3.190  0.2407E+02  0.2407E+02  0.4672E+03
   3.200  0.2305E+02  0.2305E+02  0.4677E+03
   3.210  0.2323E+02  0.2323E+02  0.4682E+03
   3.220  0.2318E+02  0.2318E+02  0.4686E+03
   3.230  0.2166E+02  0.2166E+02  0.4691E+03
   3.240  0.1950E+02  0.1950E+02  0.4695E+03
   3.250  0.1975E+02  0.1975E+02  0.4699E+03
   3.260  0.1856E+02  0.1856E+02  0.4703E+03
   3.270  0.1733E+02  0.1733E+02  0.4706E+03
   3.280  0.1707E+02  0.1707E+02  0.4710E+03
   3.290  0.1823E+02  0.1823E+02  0.4713E+03
   3.300  0.1968E+02  0.1968E+02  0.4717E+03
   3.310  0.2172E+02  0.2172E+02  0.4721E+03
   3.320  0.2474E+02  0.2474E+02  0.4726E+03
   3.330  0.2733E+02  0.2733E+02  0.4731E+03
   3.340  0.2960E+02  0.2960E+02  0.4737E+03
   3.350  0.3162E+02  0.3162E+02  0.4743E+03
   3.360  0.3099E+02  0.3099E+02  0.4749E+03
   3.370  0.2987E+02  0.2987E+02  0.4755E+03
   3.380  0.3119E+02  0.3119E+02  0.4761E+03
   3.390  0.3267E+02  0.3267E+02  0.4768E+03
   3.400  0.3415E+02  0.3415E+02  0.4774E+03
   3.410  0.3499E+02  0.3499E+02  0.4781E+03
   3.420  0.3517E+02  0.3517E+02  0.4788E+03
   3.430  0.3461E+02  0.3461E+02  0.4795E+03
   3.440  0.3289E+02  0.3289E+02  0.4802E+03
   3.450  0.2842E+02  0.2842E+02  0.4808E+03
   3.460  0.2423E+02  0.2423E+02  0.4814E+03
   3.470  0.2599E+02  0.2599E+02  0.4818E+03
   3.480  0.2587E+02  0.2587E+02  0.4824E+03
   3.490  0.2752E+02  0.2752E+02  0.4829E+03
   3.500  0.2872E+02  0.2872E+02  0.4835E+03
   3.510  0.2946E+02  0.2946E+02  0.4840E+03
   3.520  0.2997E+02  0.2997E+02  0.4846E+03
   3.530  0.2999E+02  0.2999E+02  0.4852E+03
   3.540  0.3238E+02  0.3238E+02  0.4859E+03
   3.550  0.3383E+02  0.3383E+02  0.4865E+03
   3.560  0.3371E+02  0.3371E+02  0.4872E+03
   3.570  0.3432E+02  0.3432E+02  0.4879E+03
   3.580  0.3274E+02  0.3274E+02  0.4886E+03
   3.590  0.3200E+02  0.3200E+02  0.4892E+03
   3.600  0.3055E+02  0.3055E+02  0.4898E+03
   3.610  0.2783E+02  0.2783E+02  0.4904E+03
   3.620  0.2674E+02  0.2674E+02  0.4910E+03
   3.630  0.2965E+02  0.2965E+02  0.4915E+03
   3.640  0.3212E+02  0.3212E+02  0.4921E+03
   3.650  0.3549E+02  0.3549E+02  0.4928E+03
   3.660  0.3470E+02  0.3470E+02  0.4935E+03
   3.670  0.3177E+02  0.3177E+02  0.4942E+03
   3.680  0.2987E+02  0.2987E+02  0.4948E+03
   3.690  0.2827E+02  0.2827E+02  0.4954E+03
   3.700  0.2633E+02  0.2633E+02  0.4959E+03
   3.710  0.2522E+02  0.2522E+02  0.4964E+03
   3.720  0.2523E+02  0.2523E+02  0.4969E+03
   3.730  0.2640E+02  0.2640E+02  0.4975E+03
   3.740  0.2934E+02  0.2934E+02  0.4980E+03
   3.750  0.3712E+02  0.3712E+02  0.4987E+03
   3.760  0.3627E+02  0.3627E+02  0.4994E+03
   3.770  0.3260E+02  0.3260E+02  0.5001E+03
   3.780  0.2911E+02  0.2911E+02  0.5007E+03
   3.790  0.2650E+02  0.2650E+02  0.5013E+03
   3.800  0.2545E+02  0.2545E+02  0.5018E+03
   3.810  0.2476E+02  0.2476E+02  0.5023E+03
   3.820  0.2406E+02  0.2406E+02  0.5028E+03
   3.830  0.2369E+02  0.2369E+02  0.5033E+03
   3.840  0.2379E+02  0.2379E+02  0.5038E+03
   3.850  0.2474E+02  0.2474E+02  0.5042E+03
   3.860  0.2707E+02  0.2707E+02  0.5048E+03
   3.870  0.3102E+02  0.3102E+02  0.5053E+03
   3.880  0.3674E+02  0.3674E+02  0.5060E+03
   3.890  0.4020E+02  0.4020E+02  0.5068E+03
   3.900  0.3661E+02  0.3661E+02  0.5076E+03
   3.910  0.3516E+02  0.3516E+02  0.5083E+03
   3.920  0.3373E+02  0.3373E+02  0.5090E+03
   3.930  0.2968E+02  0.2968E+02  0.5096E+03
   3.940  0.2760E+02  0.2760E+02  0.5102E+03
   3.950  0.2681E+02  0.2681E+02  0.5107E+03
   3.960  0.2728E+02  0.2728E+02  0.5113E+03
   3.970  0.2791E+02  0.2791E+02  0.5118E+03
   3.980  0.2978E+02  0.2978E+02  0.5124E+03
   3.990  0.3060E+02  0.3060E+02  0.5130E+03
   4.000  0.3107E+02  0.3107E+02  0.5136E+03
   4.010  0.3016E+02  0.3016E+02  0.5142E+03
   4.020  0.2941E+02  0.2941E+02  0.5148E+03
   4.030  0.2904E+02  0.2904E+02  0.5154E+03
   4.040  0.2902E+02  0.2902E+02  0.5160E+03
   4.050  0.2896E+02  0.2896E+02  0.5166E+03
   4.060  0.2797E+02  0.2797E+02  0.5172E+03
   4.070  0.2769E+02  0.2769E+02  0.5177E+03
   4.080  0.2825E+02  0.2825E+02  0.5183E+03
   4.090  0.2749E+02  0.2749E+02  0.5188E+03
   4.100  0.2597E+02  0.2597E+02  0.5194E+03
   4.110  0.2552E+02  0.2552E+02  0.5199E+03
   4.120  0.2528E+02  0.2528E+02  0.5204E+03
   4.130  0.2568E+02  0.2568E+02  0.5209E+03
   4.140  0.2778E+02  0.2778E+02  0.5214E+03
   4.150  0.2801E+02  0.2801E+02  0.5220E+03
   4.160  0.2859E+02  0.2859E+02  0.5225E+03
   4.170  0.3037E+02  0.3037E+02  0.5231E+03
   4.180  0.3381E+02  0.3381E+02  0.5238E+03
   4.190  0.3529E+02  0.3529E+02  0.5245E+03
   4.200  0.3833E+02  0.3833E+02  0.5252E+03
   4.210  0.3607E+02  0.3607E+02  0.5259E+03
   4.220  0.3803E+02  0.3803E+02  0.5267E+03
   4.230  0.3655E+02  0.3655E+02  0.5275E+03
   4.240  0.3305E+02  0.3305E+02  0.5282E+03
   4.250  0.2968E+02  0.2968E+02  0.5288E+03
   4.260  0.2781E+02  0.2781E+02  0.5294E+03
   4.270  0.2664E+02  0.2664E+02  0.5299E+03
   4.280  0.2591E+02  0.2591E+02  0.5304E+03
   4.290  0.2564E+02  0.2564E+02  0.5310E+03
   4.300  0.2748E+02  0.2748E+02  0.5315E+03
   4.310  0.2939E+02  0.2939E+02  0.5320E+03
   4.320  0.3189E+02  0.3189E+02  0.5327E+03
   4.330  0.3351E+02  0.3351E+02  0.5333E+03
   4.340  0.3285E+02  0.3285E+02  0.5340E+03
   4.350  0.2894E+02  0.2894E+02  0.5346E+03
   4.360  0.2677E+02  0.2677E+02  0.5352E+03
   4.370  0.2550E+02  0.2550E+02  0.5357E+03
   4.380  0.2530E+02  0.2530E+02  0.5362E+03
   4.390  0.2576E+02  0.2576E+02  0.5367E+03
   4.400  0.2739E+02  0.2739E+02  0.5372E+03
   4.410  0.2714E+02  0.2714E+02  0.5378E+03
